Tempo ( s )	Pressione ( kPa )
0.0000	-0.01953
0.1000	-0.01953
0.2000	-0.01953
0.3000	-0.01953
0.4000	-0.01953
0.5000	-0.01953
0.6000	-0.01953
0.7000	-0.01953
0.8000	-0.01953
0.9000	-0.01953
1.0000	-0.01953
1.1000	-0.01953
1.2000	-0.01465
1.3000	-0.01953
1.4000	-0.01465
1.5000	-0.01953
1.6000	-0.01953
1.7000	-0.01953
1.8000	-0.01953
1.9000	-0.01953
2.0000	-0.01465
2.1000	-0.01953
2.2000	-0.01465
2.3000	-0.01953
2.4000	-0.01953
2.5000	-0.01953
2.6000	-0.01953
2.7000	-0.01953
2.8000	-0.01953
2.9000	-0.01953
3.0000	-0.01953
3.1000	-0.01953
3.2000	-0.01953
3.3000	-0.01953
3.4000	-0.01953
3.5000	-0.01953
3.6000	-0.01953
3.7000	-0.01953
3.8000	-0.01953
3.9000	-0.01953
4.0000	-0.01953
4.1000	-0.02441
4.2000	-0.01953
4.3000	-0.02441
4.4000	-0.01953
4.5000	-0.01953
4.6000	-0.01953
4.7000	-0.01953
4.8000	-0.01953
4.9000	0.00977
5.0000	0.15625
5.1000	0.35157
5.2000	0.66897
5.3000	1.00589
5.4000	1.25004
5.5000	1.25004
5.6000	1.23539
5.7000	1.22074
5.8000	1.21097
5.9000	1.20609
6.0000	1.19633
6.1000	1.19144
6.2000	1.18656
6.3000	1.17679
6.4000	1.17191
6.5000	1.16214
6.6000	1.15726
6.7000	1.15238
6.8000	1.14750
6.9000	1.13773
7.0000	1.13773
7.1000	1.13285
7.2000	1.12796
7.3000	1.11820
7.4000	1.11820
7.5000	1.11332
7.6000	1.11332
7.7000	1.10355
7.8000	1.09867
7.9000	1.09378
8.0000	1.09378
8.1000	1.09378
8.2000	1.08890
8.3000	1.08402
8.4000	1.07913
8.5000	1.07425
8.6000	1.07425
8.7000	1.07425
8.8000	1.06937
8.9000	1.06449
9.0000	1.06449
9.1000	1.06449
9.2000	1.06449
9.3000	1.05960
9.4000	1.05472
9.5000	1.05472
9.6000	1.05472
9.7000	1.04984
9.8000	1.04984
9.9000	1.04495
10.0000	1.04495
10.1000	1.04007
10.2000	1.04007
10.3000	1.03519
10.4000	1.04007
10.5000	1.03030
10.6000	1.03030
10.7000	1.03030
10.8000	1.03030
10.9000	1.02542
11.0000	1.02542
11.1000	1.02542
11.2000	1.02542
11.3000	1.02542
11.4000	1.02054
11.5000	1.01566
11.6000	1.02054
11.7000	1.01566
11.8000	1.01566
11.9000	1.01566
12.0000	1.01077
12.1000	1.01566
12.2000	1.01566
12.3000	1.00589
12.4000	1.01077
12.5000	1.00589
12.6000	1.00101
12.7000	1.00101
12.8000	1.00101
12.9000	0.99612
13.0000	1.00101
13.1000	0.99612
13.2000	0.99612
13.3000	0.99612
13.4000	0.99612
13.5000	0.99612
13.6000	0.99612
13.7000	0.99612
13.8000	0.99612
13.9000	0.99124
14.0000	0.99612
14.1000	0.98636
14.2000	0.99124
14.3000	0.98636
14.4000	0.98636
14.5000	0.98636
14.6000	0.99124
14.7000	0.98636
14.8000	0.98148
14.9000	0.98636
15.0000	0.98148
15.1000	0.98148
15.2000	0.98148
15.3000	0.97659
15.4000	0.98148
15.5000	0.98148
15.6000	0.98148
15.7000	0.97659
15.8000	0.98148
15.9000	0.97659
16.0000	0.97659
16.1000	0.97659
16.2000	0.97659
16.3000	0.97659
16.4000	0.97659
16.5000	0.97659
16.6000	0.97659
16.7000	0.97659
16.8000	0.97659
16.9000	0.96683
17.0000	0.97659
17.1000	0.96683
17.2000	0.97659
17.3000	0.96683
17.4000	0.97171
17.5000	0.96683
17.6000	0.97171
17.7000	0.96683
17.8000	0.96683
17.9000	0.96683
18.0000	0.96683
18.1000	0.96683
18.2000	0.96683
18.3000	0.96683
18.4000	0.96194
18.5000	0.96194
18.6000	0.96194
18.7000	0.96683
18.8000	0.96194
18.9000	0.96194
19.0000	0.96194
19.1000	0.95706
19.2000	0.96194
19.3000	0.95706
19.4000	0.96194
19.5000	0.95706
19.6000	0.96194
19.7000	0.95706
19.8000	0.95706
19.9000	0.95706
20.0000	0.96194
20.1000	0.95706
20.2000	0.95706
20.3000	0.95706
20.4000	0.96194
20.5000	0.95706
20.6000	0.96194
20.7000	0.95706
20.8000	0.95706
20.9000	0.95706
21.0000	0.95706
21.1000	0.95706
21.2000	0.95706
21.3000	0.95706
21.4000	0.95706
21.5000	0.95706
21.6000	0.95706
21.7000	0.95706
21.8000	0.95706
21.9000	0.95706
22.0000	0.95706
22.1000	0.95706
22.2000	0.95218
22.3000	0.95218
22.4000	0.95218
22.5000	0.95706
22.6000	0.95218
22.7000	0.95218
22.8000	0.95218
22.9000	0.94729
23.0000	0.95218
23.1000	0.94729
23.2000	0.95218
23.3000	0.94729
23.4000	0.95218
23.5000	0.95218
23.6000	0.94729
23.7000	0.94729
23.8000	0.94729
23.9000	0.94729
24.0000	0.95218
24.1000	0.94729
24.2000	0.94729
24.3000	0.94729
24.4000	0.95218
24.5000	0.94729
24.6000	0.95218
24.7000	0.94729
24.8000	0.95218
24.9000	0.94729
25.0000	0.94729
25.1000	0.94729
25.2000	0.95218
25.3000	0.94729
25.4000	0.94729
25.5000	0.94729
25.6000	0.94729
25.7000	0.94729
25.8000	0.94729
25.9000	0.94729
26.0000	0.94241
26.1000	0.94729
26.2000	0.94729
26.3000	0.94729
26.4000	0.94729
26.5000	0.94241
26.6000	0.94729
26.7000	0.94729
26.8000	0.94241
26.9000	0.94729
27.0000	0.94241
27.1000	0.94729
27.2000	0.94729
27.3000	0.94729
27.4000	0.94241
27.5000	0.94241
27.6000	0.94729
27.7000	0.94241
27.8000	0.94241
27.9000	0.94241
28.0000	0.94241
28.1000	0.94729
28.2000	0.94241
28.3000	0.94729
28.4000	0.94241
28.5000	0.94241
28.6000	0.94241
28.7000	0.94241
28.8000	0.94241
28.9000	0.93753
29.0000	0.94241
29.1000	0.94729
29.2000	0.94241
29.3000	0.94729
29.4000	0.94241
29.5000	0.94241
29.6000	0.94241
29.7000	0.94241
29.8000	0.94241
29.9000	0.94729
30.0000	0.94241
30.1000	0.94241
30.2000	0.94241
30.3000	0.94241
30.4000	0.94241
30.5000	0.94729
30.6000	0.94241
30.7000	0.93753
30.8000	0.94241
30.9000	0.93753
31.0000	0.94241
31.1000	0.94241
31.2000	0.94241
31.3000	0.93753
31.4000	0.94241
31.5000	0.93753
31.6000	0.94241
31.7000	0.93753
31.8000	0.94241
31.9000	0.93753
32.0000	0.93753
32.1000	0.93753
32.2000	0.94241
32.3000	0.94241
32.4000	0.93753
32.5000	0.93753
32.6000	0.94241
32.7000	0.93753
32.8000	0.93753
32.9000	0.93753
33.0000	0.94241
33.1000	0.93753
33.2000	0.93753
33.3000	0.94241
33.4000	0.93753
33.5000	0.93753
33.6000	0.93753
33.7000	0.93753
33.8000	0.93753
33.9000	0.93753
34.0000	0.93753
34.1000	0.93753
34.2000	0.94241
34.3000	0.93753
34.4000	0.94241
34.5000	0.93753
34.6000	0.94241
34.7000	0.93753
34.8000	0.93753
34.9000	0.93753
35.0000	0.94241
35.1000	0.93753
35.2000	0.94241
35.3000	0.93753
35.4000	0.94241
35.5000	0.93753
35.6000	0.94241
35.7000	0.93753
35.8000	0.94241
35.9000	0.93753
36.0000	0.93753
36.1000	0.93753
36.2000	0.93753
36.3000	0.93753
36.4000	0.94241
36.5000	0.93753
36.6000	0.93753
36.7000	0.93753
36.8000	0.93753
36.9000	0.93753
37.0000	0.93753
37.1000	0.93753
37.2000	0.93753
37.3000	0.93753
37.4000	0.94241
37.5000	0.93753
37.6000	0.93753
37.7000	0.93753
37.8000	0.93753
37.9000	0.93753
38.0000	0.93753
38.1000	0.93753
38.2000	0.93753
38.3000	0.93753
38.4000	0.93753
38.5000	0.93753
38.6000	0.93753
38.7000	0.93753
38.8000	0.93753
38.9000	0.93753
39.0000	0.93753
39.1000	0.93753
39.2000	0.93753
39.3000	0.93753
39.4000	0.93753
39.5000	0.93753
39.6000	0.93753
39.7000	0.93753
39.8000	0.93753
39.9000	0.93753
40.0000	0.93753
40.1000	0.93753
40.2000	0.93753
40.3000	0.93753
40.4000	0.94241
40.5000	0.93753
40.6000	0.93753
40.7000	0.93753
40.8000	0.93753
40.9000	0.93753
41.0000	0.93753
41.1000	0.93753
41.2000	0.94241
41.3000	0.93753
41.4000	0.93753
41.5000	0.93753
41.6000	0.93753
41.7000	0.93753
41.8000	0.93753
41.9000	0.93753
42.0000	0.93753
42.1000	0.93753
42.2000	0.93753
42.3000	0.93753
42.4000	0.93753
42.5000	0.93753
42.6000	0.93753
42.7000	0.93753
42.8000	0.93753
42.9000	0.93753
43.0000	0.93753
43.1000	0.93753
43.2000	0.93753
43.3000	0.93753
43.4000	0.93753
43.5000	0.93753
43.6000	0.93753
43.7000	0.93753
43.8000	0.93753
43.9000	0.93753
44.0000	0.93753
44.1000	0.93753
44.2000	0.93753
44.3000	0.93753
44.4000	0.93753
44.5000	0.93753
44.6000	0.93753
44.7000	0.93753
44.8000	0.93753
44.9000	0.93753
45.0000	0.93753
45.1000	0.93753
45.2000	0.93753
45.3000	0.93753
45.4000	0.93753
45.5000	0.93753
45.6000	0.93753
45.7000	0.93753
45.8000	0.93753
45.9000	0.93753
46.0000	0.93753
46.1000	0.93753
46.2000	0.93753
46.3000	0.93753
46.4000	0.93753
46.5000	0.93753
46.6000	0.93753
46.7000	0.93753
46.8000	0.93753
46.9000	0.93753
47.0000	0.93753
47.1000	0.93753
47.2000	0.93753
47.3000	0.93753
47.4000	0.93753
47.5000	0.93753
47.6000	0.93753
47.7000	0.93753
47.8000	0.93753
47.9000	0.93753
48.0000	0.93753
48.1000	0.93753
48.2000	0.93753
48.3000	0.93753
48.4000	0.93753
48.5000	0.93753
48.6000	0.93753
48.7000	0.93753
48.8000	0.93753
48.9000	0.93753
49.0000	0.93753
49.1000	0.93753
49.2000	0.93753
49.3000	0.93753
49.4000	0.93753
49.5000	0.93753
49.6000	0.93753
49.7000	0.93753
49.8000	0.93753
49.9000	0.93753
50.0000	0.93753
50.1000	0.93753
50.2000	0.93753
50.3000	0.93753
50.4000	0.93753
50.5000	0.93753
50.6000	0.93753
50.7000	0.93753
50.8000	0.93753
50.9000	0.93753
51.0000	0.93753
51.1000	0.93753
51.2000	0.93753
51.3000	0.93753
51.4000	0.93753
51.5000	0.93753
51.6000	0.93753
51.7000	0.93753
51.8000	0.93265
51.9000	0.93753
52.0000	0.93753
52.1000	0.93753
52.2000	0.93753
52.3000	0.93753
52.4000	0.93753
52.5000	0.93753
52.6000	0.93753
52.7000	0.93753
52.8000	0.93753
52.9000	0.93753
53.0000	0.93753
53.1000	0.93753
53.2000	0.93753
53.3000	0.93753
53.4000	0.93753
53.5000	0.93753
53.6000	0.93753
53.7000	0.93753
53.8000	0.93753
53.9000	0.93753
54.0000	0.93753
54.1000	0.93753
54.2000	0.93753
54.3000	0.93753
54.4000	0.93753
54.5000	0.93753
54.6000	0.93753
54.7000	0.93753
54.8000	0.93753
54.9000	0.93753
55.0000	0.94241
55.1000	1.07425
55.2000	1.34770
55.3000	1.62603
55.4000	1.91900
55.5000	2.20710
55.6000	2.21198
55.7000	2.20710
55.8000	2.19733
55.9000	2.18757
56.0000	2.17292
56.1000	2.15827
56.2000	2.15339
56.3000	2.14850
56.4000	2.14850
56.5000	2.13874
56.6000	2.12897
56.7000	2.11921
56.8000	2.11432
56.9000	2.10944
57.0000	2.10944
57.1000	2.09967
57.2000	2.09479
57.3000	2.08502
57.4000	2.08502
57.5000	2.08014
57.6000	2.07526
57.7000	2.07038
57.8000	2.07038
57.9000	2.06061
58.0000	2.06061
58.1000	2.05573
58.2000	2.05084
58.3000	2.05084
58.4000	2.05084
58.5000	2.04108
58.6000	2.04108
58.7000	2.04108
58.8000	2.03619
58.9000	2.03131
59.0000	2.03131
59.1000	2.03131
59.2000	2.02643
59.3000	2.02155
59.4000	2.02155
59.5000	2.01666
59.6000	2.01666
59.7000	2.01178
59.8000	2.01178
59.9000	2.01178
60.0000	2.01178
60.1000	2.00690
60.2000	2.00690
60.3000	2.00201
60.4000	2.00201
60.5000	2.00201
60.6000	1.99225
60.7000	1.99225
60.8000	1.99225
60.9000	1.99225
61.0000	1.99225
61.1000	1.99225
61.2000	1.98737
61.3000	1.98248
61.4000	1.97760
61.5000	1.97760
61.6000	1.97760
61.7000	1.97272
61.8000	1.97760
61.9000	1.97272
62.0000	1.97272
62.1000	1.97272
62.2000	1.97272
62.3000	1.96295
62.4000	1.97272
62.5000	1.96295
62.6000	1.96295
62.7000	1.96295
62.8000	1.96295
62.9000	1.96295
63.0000	1.96295
63.1000	1.95807
63.2000	1.95807
63.3000	1.95318
63.4000	1.95807
63.5000	1.95318
63.6000	1.95807
63.7000	1.95318
63.8000	1.95318
63.9000	1.95318
64.0000	1.95318
64.1000	1.95318
64.2000	1.95318
64.3000	1.95318
64.4000	1.94830
64.5000	1.95318
64.6000	1.94830
64.7000	1.94342
64.8000	1.94830
64.9000	1.94342
65.0000	1.94342
65.1000	1.94342
65.2000	1.94342
65.3000	1.94342
65.4000	1.94342
65.5000	1.94342
65.6000	1.93854
65.7000	1.93854
65.8000	1.93854
65.9000	1.93365
66.0000	1.93854
66.1000	1.93365
66.2000	1.93854
66.3000	1.93365
66.4000	1.93365
66.5000	1.92877
66.6000	1.93365
66.7000	1.92877
66.8000	1.93365
66.9000	1.93365
67.0000	1.93365
67.1000	1.92877
67.2000	1.93365
67.3000	1.92389
67.4000	1.92877
67.5000	1.92877
67.6000	1.93365
67.7000	1.92389
67.8000	1.92877
67.9000	1.92389
68.0000	1.92877
68.1000	1.92389
68.2000	1.92877
68.3000	1.92389
68.4000	1.92389
68.5000	1.92389
68.6000	1.92877
68.7000	1.92389
68.8000	1.92389
68.9000	1.92389
69.0000	1.92389
69.1000	1.92389
69.2000	1.92389
69.3000	1.91900
69.4000	1.91900
69.5000	1.92389
69.6000	1.91900
69.7000	1.92389
69.8000	1.91900
69.9000	1.91412
70.0000	1.91900
70.1000	1.91412
70.2000	1.91900
70.3000	1.91412
70.4000	1.91900
70.5000	1.91412
70.6000	1.91900
70.7000	1.91412
70.8000	1.91900
70.9000	1.91412
71.0000	1.91900
71.1000	1.91412
71.2000	1.91412
71.3000	1.91412
71.4000	1.91900
71.5000	1.91412
71.6000	1.91412
71.7000	1.91412
71.8000	1.91900
71.9000	1.91412
72.0000	1.91412
72.1000	1.91412
72.2000	1.91412
72.3000	1.91412
72.4000	1.91412
72.5000	1.91412
72.6000	1.91412
72.7000	1.91412
72.8000	1.91412
72.9000	1.91412
73.0000	1.91412
73.1000	1.91412
73.2000	1.91412
73.3000	1.90924
73.4000	1.91412
73.5000	1.91412
73.6000	1.91412
73.7000	1.91412
73.8000	1.91412
73.9000	1.90924
74.0000	1.91412
74.1000	1.91412
74.2000	1.91412
74.3000	1.90435
74.4000	1.91412
74.5000	1.90435
74.6000	1.91412
74.7000	1.91412
74.8000	1.90924
74.9000	1.91412
75.0000	1.90924
75.1000	1.90435
75.2000	1.90435
75.3000	1.90435
75.4000	1.90435
75.5000	1.90435
75.6000	1.90435
75.7000	1.90435
75.8000	1.90435
75.9000	1.90435
76.0000	1.90924
76.1000	1.90435
76.2000	1.89947
76.3000	1.90435
76.4000	1.90435
76.5000	1.90435
76.6000	1.90435
76.7000	1.90435
76.8000	1.90435
76.9000	1.90435
77.0000	1.90435
77.1000	1.90435
77.2000	1.89947
77.3000	1.90435
77.4000	1.89947
77.5000	1.90435
77.6000	1.90435
77.7000	1.90435
77.8000	1.89947
77.9000	1.89947
78.0000	1.89947
78.1000	1.90435
78.2000	1.89947
78.3000	1.90435
78.4000	1.89947
78.5000	1.89947
78.6000	1.89947
78.7000	1.90435
78.8000	1.89947
78.9000	1.89947
79.0000	1.89947
79.1000	1.89459
79.2000	1.89947
79.3000	1.90435
79.4000	1.89947
79.5000	1.89459
79.6000	1.89947
79.7000	1.89947
79.8000	1.89947
79.9000	1.89459
80.0000	1.89947
80.1000	1.89459
80.2000	1.89947
80.3000	1.89947
80.4000	1.89947
80.5000	1.89459
80.6000	1.89947
80.7000	1.89947
80.8000	1.89947
80.9000	1.89459
81.0000	1.89947
81.1000	1.89459
81.2000	1.89459
81.3000	1.89459
81.4000	1.89947
81.5000	1.89459
81.6000	1.89459
81.7000	1.89459
81.8000	1.89947
81.9000	1.89459
82.0000	1.89947
82.1000	1.89459
82.2000	1.89947
82.3000	1.89459
82.4000	1.89947
82.5000	1.89459
82.6000	1.89947
82.7000	1.89459
82.8000	1.89459
82.9000	1.89459
83.0000	1.89459
83.1000	1.89459
83.2000	1.89459
83.3000	1.89459
83.4000	1.89459
83.5000	1.89459
83.6000	1.89459
83.7000	1.88971
83.8000	1.89459
83.9000	1.89459
84.0000	1.89947
84.1000	1.89459
84.2000	1.89459
84.3000	1.89459
84.4000	1.89459
84.5000	1.89459
84.6000	1.89459
84.7000	1.89459
84.8000	1.89459
84.9000	1.88971
85.0000	1.89459
85.1000	1.89459
85.2000	1.89459
85.3000	1.89459
85.4000	1.89459
85.5000	1.89459
85.6000	1.89459
85.7000	1.89459
85.8000	1.89459
85.9000	1.89459
86.0000	1.89459
86.1000	1.89459
86.2000	1.89947
86.3000	1.88971
86.4000	1.89459
86.5000	1.89459
86.6000	1.89459
86.7000	1.89459
86.8000	1.89459
86.9000	1.89459
87.0000	1.89459
87.1000	1.89459
87.2000	1.89459
87.3000	1.89459
87.4000	1.89459
87.5000	1.89459
87.6000	1.89459
87.7000	1.89459
87.8000	1.89459
87.9000	1.89459
88.0000	1.89459
88.1000	1.88971
88.2000	1.89459
88.3000	1.88971
88.4000	1.88971
88.5000	1.89459
88.6000	1.89459
88.7000	1.89459
88.8000	1.89459
88.9000	1.89459
89.0000	1.89459
89.1000	1.88971
89.2000	1.88971
89.3000	1.88971
89.4000	1.88971
89.5000	1.89459
89.6000	1.89459
89.7000	1.89459
89.8000	1.89459
89.9000	1.88971
90.0000	1.89459
90.1000	1.88971
90.2000	1.89459
90.3000	1.89459
90.4000	1.89459
90.5000	1.89459
90.6000	1.89459
90.7000	1.88482
90.8000	1.89459
90.9000	1.88971
91.0000	1.89459
91.1000	1.88971
91.2000	1.89459
91.3000	1.88971
91.4000	1.89459
91.5000	1.88971
91.6000	1.89459
91.7000	1.88971
91.8000	1.88971
91.9000	1.88971
92.0000	1.88971
92.1000	1.88971
92.2000	1.89459
92.3000	1.89459
92.4000	1.89459
92.5000	1.89459
92.6000	1.88971
92.7000	1.89459
92.8000	1.89459
92.9000	1.89459
93.0000	1.89459
93.1000	1.89459
93.2000	1.89459
93.3000	1.88971
93.4000	1.88971
93.5000	1.88482
93.6000	1.89459
93.7000	1.88482
93.8000	1.89459
93.9000	1.88971
94.0000	1.89459
94.1000	1.88482
94.2000	1.89459
94.3000	1.88971
94.4000	1.89459
94.5000	1.89459
94.6000	1.89459
94.7000	1.88482
94.8000	1.88971
94.9000	1.88971
95.0000	1.88971
95.1000	1.88482
95.2000	1.89459
95.3000	1.88971
95.4000	1.88971
95.5000	1.88971
95.6000	1.88971
95.7000	1.88971
95.8000	1.89459
95.9000	1.88971
96.0000	1.89459
96.1000	1.88971
96.2000	1.88971
96.3000	1.88482
96.4000	1.88971
96.5000	1.88482
96.6000	1.88971
96.7000	1.88971
96.8000	1.88971
96.9000	1.88482
97.0000	1.88971
97.1000	1.88482
97.2000	1.88971
97.3000	1.88971
97.4000	1.89459
97.5000	1.88971
97.6000	1.88971
97.7000	1.88482
97.8000	1.89459
97.9000	1.88971
98.0000	1.89459
98.1000	1.88971
98.2000	1.89459
98.3000	1.88482
98.4000	1.88971
98.5000	1.88482
98.6000	1.88971
98.7000	1.88482
98.8000	1.88971
98.9000	1.88482
99.0000	1.87994
99.1000	1.88482
99.2000	1.89459
99.3000	1.88971
99.4000	1.88971
99.5000	1.88482
99.6000	1.88971
99.7000	1.88971
99.8000	1.89459
99.9000	1.88482
100.0000	1.89459
100.1000	1.88482
100.2000	1.89459
100.3000	1.88482
100.4000	1.89459
100.5000	1.88971
100.6000	1.89459
100.7000	1.88971
100.8000	1.88971
100.9000	1.88482
101.0000	1.88971
101.1000	1.88482
101.2000	1.88971
101.3000	1.88482
101.4000	1.89459
101.5000	1.88971
101.6000	1.88971
101.7000	1.88971
101.8000	1.89459
101.9000	1.88971
102.0000	1.88971
102.1000	1.88482
102.2000	1.88971
102.3000	1.88971
102.4000	1.88482
102.5000	1.88482
102.6000	1.88971
102.7000	1.88482
102.8000	1.89459
102.9000	1.88482
103.0000	1.88971
103.1000	1.88482
103.2000	1.88971
103.3000	1.88482
103.4000	1.88971
103.5000	1.88482
103.6000	1.88971
103.7000	1.88482
103.8000	1.88971
103.9000	1.88482
104.0000	1.89459
104.1000	1.88482
104.2000	1.88971
104.3000	1.88482
104.4000	1.88971
104.5000	1.88482
104.6000	1.88971
104.7000	1.88482
104.8000	1.88971
104.9000	1.88482
105.0000	1.88971
105.1000	1.88482
105.2000	1.88482
105.3000	1.88482
105.4000	1.88971
105.5000	1.88482
105.6000	1.88971
105.7000	1.88482
105.8000	1.88971
105.9000	1.88971
106.0000	1.88971
106.1000	1.88971
106.2000	1.88971
106.3000	1.88482
106.4000	1.88971
106.5000	1.88482
106.6000	1.89459
106.7000	1.88482
106.8000	1.88971
106.9000	1.88482
107.0000	1.89459
107.1000	1.88971
107.2000	1.89459
107.3000	1.88482
107.4000	1.88971
107.5000	1.88482
107.6000	1.88971
107.7000	1.88482
107.8000	1.88971
107.9000	1.88482
108.0000	1.88482
108.1000	1.88482
108.2000	1.88971
108.3000	1.88482
108.4000	1.88971
108.5000	1.88482
108.6000	1.88971
108.7000	1.88482
108.8000	1.88971
108.9000	1.88971
109.0000	1.88971
109.1000	1.88482
109.2000	1.88971
109.3000	1.88482
109.4000	1.88971
109.5000	1.88482
109.6000	1.88971
109.7000	1.88482
109.8000	1.88971
109.9000	1.88482
110.0000	1.88482
110.1000	1.88482
110.2000	1.88971
110.3000	1.88482
110.4000	1.88482
110.5000	1.88482
110.6000	1.88482
110.7000	1.88482
110.8000	1.87994
110.9000	1.88482
111.0000	1.87994
111.1000	1.88482
111.2000	1.88482
111.3000	1.88482
111.4000	1.88482
111.5000	1.89459
111.6000	1.94342
111.7000	2.16803
111.8000	2.38777
111.9000	2.68075
112.0000	3.01279
112.1000	3.23252
112.2000	3.22764
112.3000	3.21787
112.4000	3.20811
112.5000	3.19346
112.6000	3.18857
112.7000	3.17392
112.8000	3.16904
112.9000	3.16416
113.0000	3.15928
113.1000	3.14951
113.2000	3.14463
113.3000	3.12510
113.4000	3.12510
113.5000	3.11533
113.6000	3.11533
113.7000	3.10556
113.8000	3.10556
113.9000	3.09580
114.0000	3.09580
114.1000	3.08603
114.2000	3.08603
114.3000	3.07627
114.4000	3.07627
114.5000	3.07627
114.6000	3.07138
114.7000	3.06162
114.8000	3.06650
114.9000	3.05673
115.0000	3.05673
115.1000	3.05673
115.2000	3.05185
115.3000	3.04697
115.4000	3.04697
115.5000	3.03720
115.6000	3.03232
115.7000	3.03720
115.8000	3.03232
115.9000	3.03232
116.0000	3.03232
116.1000	3.02744
116.2000	3.02744
116.3000	3.02255
116.4000	3.01767
116.5000	3.01767
116.6000	3.01279
116.7000	3.01279
116.8000	3.01279
116.9000	3.00790
117.0000	3.00790
117.1000	3.00790
117.2000	3.00790
117.3000	2.99814
117.4000	2.99326
117.5000	2.99326
117.6000	2.99326
117.7000	2.98837
117.8000	2.98837
117.9000	2.98837
118.0000	2.98837
118.1000	2.98349
118.2000	2.98837
118.3000	2.97861
118.4000	2.97861
118.5000	2.97861
118.6000	2.97861
118.7000	2.97861
118.8000	2.97372
118.9000	2.96884
119.0000	2.97372
119.1000	2.96884
119.2000	2.96884
119.3000	2.96884
119.4000	2.96884
119.5000	2.96884
119.6000	2.96884
119.7000	2.96884
119.8000	2.96884
119.9000	2.96884
120.0000	2.95907
120.1000	2.95907
120.2000	2.95907
120.3000	2.95419
120.4000	2.95907
120.5000	2.95907
120.6000	2.95419
120.7000	2.94931
120.8000	2.95419
120.9000	2.94931
121.0000	2.94931
121.1000	2.94931
121.2000	2.94931
121.3000	2.94443
121.4000	2.94931
121.5000	2.94931
121.6000	2.94931
121.7000	2.93954
121.8000	2.94931
121.9000	2.93954
122.0000	2.94443
122.1000	2.93954
122.2000	2.94443
122.3000	2.93954
122.4000	2.94443
122.5000	2.93954
122.6000	2.93954
122.7000	2.93954
122.8000	2.93954
122.9000	2.93466
123.0000	2.93954
123.1000	2.93466
123.2000	2.93466
123.3000	2.93466
123.4000	2.93466
123.5000	2.92978
123.6000	2.93466
123.7000	2.93954
123.8000	2.93466
123.9000	2.92978
124.0000	2.92978
124.1000	2.92978
124.2000	2.92978
124.3000	2.92978
124.4000	2.92978
124.5000	2.92978
124.6000	2.92978
124.7000	2.92978
124.8000	2.92978
124.9000	2.92978
125.0000	2.92978
125.1000	2.92978
125.2000	2.92978
125.3000	2.92978
125.4000	2.92489
125.5000	2.92001
125.6000	2.92001
125.7000	2.92001
125.8000	2.92489
125.9000	2.92001
126.0000	2.92001
126.1000	2.92001
126.2000	2.92489
126.3000	2.92001
126.4000	2.92001
126.5000	2.92001
126.6000	2.92001
126.7000	2.92001
126.8000	2.92001
126.9000	2.92001
127.0000	2.92001
127.1000	2.91513
127.2000	2.91513
127.3000	2.92001
127.4000	2.91513
127.5000	2.92001
127.6000	2.91513
127.7000	2.91513
127.8000	2.91513
127.9000	2.91025
128.0000	2.91513
128.1000	2.91025
128.2000	2.91025
128.3000	2.91025
128.4000	2.91513
128.5000	2.91025
128.6000	2.91025
128.7000	2.91025
128.8000	2.91025
128.9000	2.91025
129.0000	2.91025
129.1000	2.91025
129.2000	2.91025
129.3000	2.91025
129.4000	2.91025
129.5000	2.91025
129.6000	2.91025
129.7000	2.91025
129.8000	2.91025
129.9000	2.91025
130.0000	2.91025
130.1000	2.90536
130.2000	2.91025
130.3000	2.91025
130.4000	2.91025
130.5000	2.90536
130.6000	2.91025
130.7000	2.90048
130.8000	2.91025
130.9000	2.91025
131.0000	2.91025
131.1000	2.90048
131.2000	2.90536
131.3000	2.90536
131.4000	2.90536
131.5000	2.90048
131.6000	2.90536
131.7000	2.91025
131.8000	2.90536
131.9000	2.91025
132.0000	2.91025
132.1000	2.90048
132.2000	2.90536
132.3000	2.90048
132.4000	2.90536
132.5000	2.90536
132.6000	2.90536
132.7000	2.90048
132.8000	2.90536
132.9000	2.90048
133.0000	2.90536
133.1000	2.90048
133.2000	2.90536
133.3000	2.91025
133.4000	2.90536
133.5000	2.90048
133.6000	2.90048
133.7000	2.90048
133.8000	2.90536
133.9000	2.90048
134.0000	2.90536
134.1000	2.90048
134.2000	2.90048
134.3000	2.90048
134.4000	2.90048
134.5000	2.90048
134.6000	2.90536
134.7000	2.90048
134.8000	2.90048
134.9000	2.90048
135.0000	2.90048
135.1000	2.90048
135.2000	2.90536
135.3000	2.90048
135.4000	2.90536
135.5000	2.90048
135.6000	2.89560
135.7000	2.89560
135.8000	2.90048
135.9000	2.90048
136.0000	2.90536
136.1000	2.90048
136.2000	2.90048
136.3000	2.90048
136.4000	2.90048
136.5000	2.90048
136.6000	2.90048
136.7000	2.89560
136.8000	2.89560
136.9000	2.90048
137.0000	2.90536
137.1000	2.90048
137.2000	2.90048
137.3000	2.90048
137.4000	2.89560
137.5000	2.90048
137.6000	2.89560
137.7000	2.90048
137.8000	2.89560
137.9000	2.90048
138.0000	2.90048
138.1000	2.90048
138.2000	2.89560
138.3000	2.90048
138.4000	2.89560
138.5000	2.90048
138.6000	2.89560
138.7000	2.89560
138.8000	2.90048
138.9000	2.90048
139.0000	2.90048
139.1000	2.90048
139.2000	2.90048
139.3000	2.89071
139.4000	2.89560
139.5000	2.90048
139.6000	2.90048
139.7000	2.90048
139.8000	2.90048
139.9000	2.90048
140.0000	2.90048
140.1000	2.90048
140.2000	2.90048
140.3000	2.90048
140.4000	2.89560
140.5000	2.89560
140.6000	2.90048
140.7000	2.89071
140.8000	2.89560
140.9000	2.90048
141.0000	2.89560
141.1000	2.90048
141.2000	2.90048
141.3000	2.89071
141.4000	2.89560
141.5000	2.89560
141.6000	2.89560
141.7000	2.89560
141.8000	2.89560
141.9000	2.90048
142.0000	2.89560
142.1000	2.89560
142.2000	2.89560
142.3000	2.90048
142.4000	2.90048
142.5000	2.89071
142.6000	2.89560
142.7000	2.90048
142.8000	2.89560
142.9000	2.89071
143.0000	2.89560
143.1000	2.89071
143.2000	2.89560
143.3000	2.89071
143.4000	2.89560
143.5000	2.89560
143.6000	2.89560
143.7000	2.89071
143.8000	2.89560
143.9000	2.89071
144.0000	2.89560
144.1000	2.90048
144.2000	2.90048
144.3000	2.89071
144.4000	2.89560
144.5000	2.89071
144.6000	2.89560
144.7000	2.89560
144.8000	2.89560
144.9000	2.89071
145.0000	2.89560
145.1000	2.89071
145.2000	2.89560
145.3000	2.89071
145.4000	2.89560
145.5000	2.89560
145.6000	2.89560
145.7000	2.89071
145.8000	2.89560
145.9000	2.89071
146.0000	2.89560
146.1000	2.89071
146.2000	2.89560
146.3000	2.89560
146.4000	2.89560
146.5000	2.89560
146.6000	2.89560
146.7000	2.89071
146.8000	2.89560
146.9000	2.89071
147.0000	2.89560
147.1000	2.89560
147.2000	2.89560
147.3000	2.89071
147.4000	2.89560
147.5000	2.89071
147.6000	2.89071
147.7000	2.89071
147.8000	2.89560
147.9000	2.89071
148.0000	2.89560
148.1000	2.89560
148.2000	2.89560
148.3000	2.89071
148.4000	2.89560
148.5000	2.89071
148.6000	2.89560
148.7000	2.89071
148.8000	2.89560
148.9000	2.89071
149.0000	2.89071
149.1000	2.89071
149.2000	2.89560
149.3000	2.89071
149.4000	2.89560
149.5000	2.89071
149.6000	2.89560
149.7000	2.89071
149.8000	2.89560
149.9000	2.89071
150.0000	2.89560
150.1000	2.90048
150.2000	2.89560
150.3000	2.89071
150.4000	2.89560
150.5000	2.89071
150.6000	2.89560
150.7000	2.90048
150.8000	2.89560
150.9000	2.89560
151.0000	2.89560
151.1000	2.89071
151.2000	2.89560
151.3000	2.89560
151.4000	2.89071
151.5000	2.89071
151.6000	2.89560
151.7000	2.89071
151.8000	2.89560
151.9000	2.89071
152.0000	2.89071
152.1000	2.89071
152.2000	2.89071
152.3000	2.89071
152.4000	2.89071
152.5000	2.89071
152.6000	2.89071
152.7000	2.89071
152.8000	2.89560
152.9000	2.89071
153.0000	2.89560
153.1000	2.89071
153.2000	2.89071
153.3000	2.89560
153.4000	2.89560
153.5000	2.89071
153.6000	2.89560
153.7000	2.89071
153.8000	2.89560
153.9000	2.89071
154.0000	2.89560
154.1000	2.89071
154.2000	2.89071
154.3000	2.89071
154.4000	2.89560
154.5000	2.89071
154.6000	2.89071
154.7000	2.89071
154.8000	2.89560
154.9000	2.89071
155.0000	2.89560
155.1000	2.89071
155.2000	2.89071
155.3000	2.89071
155.4000	2.89560
155.5000	2.89071
155.6000	2.89560
155.7000	2.89071
155.8000	2.89071
155.9000	2.89071
156.0000	2.89071
156.1000	2.89071
156.2000	2.89560
156.3000	2.89071
156.4000	2.89560
156.5000	2.89071
156.6000	2.89071
156.7000	2.89071
156.8000	2.89560
156.9000	2.89071
157.0000	2.89560
157.1000	2.89071
157.2000	2.89071
157.3000	2.89071
157.4000	2.89071
157.5000	2.89071
157.6000	2.89071
157.7000	2.89071
157.8000	2.89071
157.9000	2.89071
158.0000	2.89560
158.1000	2.89071
158.2000	2.89071
158.3000	2.89071
158.4000	2.89071
158.5000	2.89071
158.6000	2.89560
158.7000	2.89071
158.8000	2.89560
158.9000	2.89071
159.0000	2.89560
159.1000	2.89071
159.2000	2.89071
159.3000	2.89071
159.4000	2.89071
159.5000	2.89071
159.6000	2.89071
159.7000	2.89071
159.8000	2.89071
159.9000	2.89071
160.0000	2.89071
160.1000	2.89071
160.2000	2.89071
160.3000	2.89071
160.4000	2.89071
160.5000	2.89071
160.6000	2.89071
160.7000	2.89071
160.8000	2.89071
160.9000	2.89071
161.0000	2.89071
161.1000	2.89071
161.2000	2.89071
161.3000	2.89071
161.4000	2.89071
161.5000	2.89071
161.6000	2.89071
161.7000	2.89071
161.8000	2.89560
161.9000	2.89071
162.0000	2.89071
162.1000	2.89071
162.2000	2.89071
162.3000	2.89071
162.4000	2.89071
162.5000	2.89071
162.6000	2.89560
162.7000	2.89071
162.8000	2.89071
162.9000	2.89071
163.0000	2.89071
163.1000	2.89071
163.2000	2.89071
163.3000	2.89071
163.4000	2.89560
163.5000	2.89071
163.6000	2.89071
163.7000	2.89071
163.8000	2.89071
163.9000	2.89071
164.0000	2.89071
164.1000	2.89071
164.2000	2.89071
164.3000	2.89071
164.4000	2.89071
164.5000	2.89071
164.6000	2.89560
164.7000	2.89071
164.8000	2.89071
164.9000	2.89071
165.0000	2.89560
165.1000	2.89071
165.2000	2.89071
165.3000	2.89071
165.4000	2.89071
165.5000	2.89071
165.6000	2.89071
165.7000	2.89071
165.8000	2.89071
165.9000	2.89071
166.0000	2.89071
166.1000	2.89071
166.2000	2.89071
166.3000	2.89071
166.4000	2.89071
166.5000	2.89071
166.6000	2.89071
166.7000	2.89071
166.8000	2.89071
166.9000	2.89071
167.0000	2.89071
167.1000	2.89071
167.2000	2.89071
167.3000	2.89071
167.4000	2.89071
167.5000	2.89071
167.6000	2.89071
167.7000	2.89071
167.8000	2.89071
167.9000	2.89071
168.0000	2.89071
168.1000	2.89071
168.2000	2.89071
168.3000	2.89071
168.4000	2.89071
168.5000	2.89071
168.6000	2.89071
168.7000	2.89071
168.8000	2.89071
168.9000	2.89071
169.0000	2.89071
169.1000	2.89071
169.2000	2.89071
169.3000	2.89071
169.4000	2.89071
169.5000	2.89071
169.6000	2.89071
169.7000	2.89071
169.8000	2.89071
169.9000	2.89071
170.0000	2.89071
170.1000	2.89071
170.2000	2.89071
170.3000	2.89071
170.4000	2.89560
170.5000	2.89071
170.6000	2.89071
170.7000	2.89071
170.8000	2.89071
170.9000	2.89071
171.0000	2.89071
171.1000	2.89071
171.2000	2.89071
171.3000	2.89071
171.4000	2.89071
171.5000	2.89071
171.6000	2.89071
171.7000	2.89071
171.8000	2.89071
171.9000	2.89071
172.0000	2.89071
172.1000	2.89071
172.2000	2.89071
172.3000	2.89071
172.4000	2.89560
172.5000	2.89071
172.6000	2.89071
172.7000	2.89071
172.8000	2.89071
172.9000	2.89071
173.0000	2.89071
173.1000	2.89071
173.2000	2.89560
173.3000	2.89071
173.4000	2.89071
173.5000	2.89071
173.6000	2.89071
173.7000	2.89071
173.8000	2.89071
173.9000	2.89071
174.0000	2.89071
174.1000	2.89071
174.2000	2.89071
174.3000	2.89071
174.4000	2.89071
174.5000	2.89071
174.6000	2.89071
174.7000	2.89071
174.8000	2.89071
174.9000	2.89071
175.0000	2.89071
175.1000	2.89071
175.2000	2.89071
175.3000	2.89071
175.4000	2.89071
175.5000	2.89071
175.6000	2.89071
175.7000	2.89071
175.8000	2.89071
175.9000	2.89071
176.0000	2.89071
176.1000	2.89071
176.2000	2.89071
176.3000	2.89071
176.4000	2.89071
176.5000	2.89071
176.6000	2.89071
176.7000	2.89071
176.8000	2.89071
176.9000	2.89071
177.0000	2.89071
177.1000	2.89071
177.2000	2.89071
177.3000	2.89071
177.4000	2.89071
177.5000	2.89071
177.6000	2.89071
177.7000	2.89071
177.8000	2.89560
177.9000	2.89560
178.0000	2.91025
178.1000	2.99326
178.2000	3.22275
178.3000	3.62316
178.4000	4.12610
178.5000	4.21888
178.6000	4.20911
178.7000	4.19935
178.8000	4.18958
178.9000	4.17982
179.0000	4.17005
179.1000	4.16028
179.2000	4.15540
179.3000	4.15052
179.4000	4.14075
179.5000	4.13099
179.6000	4.12610
179.7000	4.12122
179.8000	4.12122
179.9000	4.11145
180.0000	4.10169
180.1000	4.09680
180.2000	4.09192
180.3000	4.08216
180.4000	4.08216
180.5000	4.08216
180.6000	4.07239
180.7000	4.06751
180.8000	4.06751
180.9000	4.06262
181.0000	4.06262
181.1000	4.05286
181.2000	4.05286
181.3000	4.04309
181.4000	4.04798
181.5000	4.04309
181.6000	4.04309
181.7000	4.03333
181.8000	4.03333
181.9000	4.02844
182.0000	4.02844
182.1000	4.02356
182.2000	4.02356
182.3000	4.02356
182.4000	4.02356
182.5000	4.01379
182.6000	4.00891
182.7000	4.01379
182.8000	4.00891
182.9000	4.00403
183.0000	4.00403
183.1000	4.00403
183.2000	4.00403
183.3000	3.99915
183.4000	3.99915
183.5000	3.99426
183.6000	3.99426
183.7000	3.99426
183.8000	3.98938
183.9000	3.98450
184.0000	3.98450
184.1000	3.98450
184.2000	3.98450
184.3000	3.98450
184.4000	3.98450
184.5000	3.98450
184.6000	3.97961
184.7000	3.97473
184.8000	3.97473
184.9000	3.97473
185.0000	3.96985
185.1000	3.96985
185.2000	3.96985
185.3000	3.96985
185.4000	3.96985
185.5000	3.96496
185.6000	3.96496
185.7000	3.96496
185.8000	3.96008
185.9000	3.96496
186.0000	3.96008
186.1000	3.96008
186.2000	3.96496
186.3000	3.95520
186.4000	3.95520
186.5000	3.95520
186.6000	3.95520
186.7000	3.95032
186.8000	3.95032
186.9000	3.95520
187.0000	3.95032
187.1000	3.95032
187.2000	3.94543
187.3000	3.94543
187.4000	3.94543
187.5000	3.94543
187.6000	3.95032
187.7000	3.94543
187.8000	3.94543
187.9000	3.94543
188.0000	3.94543
188.1000	3.94055
188.2000	3.94543
188.3000	3.94055
188.4000	3.94543
188.5000	3.93567
188.6000	3.93567
188.7000	3.93567
188.8000	3.93078
188.9000	3.93567
189.0000	3.93567
189.1000	3.93567
189.2000	3.93078
189.3000	3.93567
189.4000	3.93567
189.5000	3.93078
189.6000	3.93078
189.7000	3.93078
189.8000	3.93078
189.9000	3.92590
190.0000	3.93078
190.1000	3.92590
190.2000	3.93078
190.3000	3.92590
190.4000	3.92590
190.5000	3.92590
190.6000	3.92590
190.7000	3.92590
190.8000	3.92590
190.9000	3.92102
191.0000	3.92590
191.1000	3.92590
191.2000	3.92590
191.3000	3.91614
191.4000	3.92590
191.5000	3.92102
191.6000	3.92102
191.7000	3.91614
191.8000	3.91614
191.9000	3.91614
192.0000	3.91614
192.1000	3.91614
192.2000	3.91614
192.3000	3.91614
192.4000	3.92102
192.5000	3.91614
192.6000	3.91614
192.7000	3.91614
192.8000	3.91614
192.9000	3.91614
193.0000	3.91125
193.1000	3.91614
193.2000	3.91614
193.3000	3.91125
193.4000	3.91125
193.5000	3.91614
193.6000	3.91125
193.7000	3.91125
193.8000	3.91125
193.9000	3.91614
194.0000	3.91125
194.1000	3.91125
194.2000	3.91125
194.3000	3.90637
194.4000	3.91125
194.5000	3.90637
194.6000	3.91125
194.7000	3.90637
194.8000	3.91125
194.9000	3.90637
195.0000	3.90637
195.1000	3.90637
195.2000	3.91125
195.3000	3.90637
195.4000	3.91125
195.5000	3.90637
195.6000	3.90637
195.7000	3.90637
195.8000	3.90637
195.9000	3.90637
196.0000	3.90637
196.1000	3.90637
196.2000	3.90637
196.3000	3.90637
196.4000	3.90637
196.5000	3.90637
196.6000	3.90637
196.7000	3.90637
196.8000	3.90637
196.9000	3.90637
197.0000	3.90637
197.1000	3.90637
197.2000	3.90637
197.3000	3.90637
197.4000	3.90637
197.5000	3.90637
197.6000	3.90637
197.7000	3.90637
197.8000	3.90637
197.9000	3.90637
198.0000	3.90637
198.1000	3.90637
198.2000	3.90637
198.3000	3.90637
198.4000	3.90637
198.5000	3.90637
198.6000	3.90637
198.7000	3.90637
198.8000	3.90637
198.9000	3.90637
199.0000	3.90149
199.1000	3.89660
199.2000	3.90637
199.3000	3.90637
199.4000	3.90149
199.5000	3.90637
199.6000	3.90149
199.7000	3.90637
199.8000	3.89660
199.9000	3.90637
200.0000	3.89660
200.1000	3.89660
200.2000	3.90637
200.3000	3.90637
200.4000	3.90637
200.5000	3.89660
200.6000	3.89660
200.7000	3.89660
200.8000	3.89660
200.9000	3.89660
201.0000	3.90637
201.1000	3.89660
201.2000	3.89660
201.3000	3.89660
201.4000	3.89660
201.5000	3.89172
201.6000	3.89660
201.7000	3.89660
201.8000	3.89660
201.9000	3.89660
202.0000	3.89660
202.1000	3.89660
202.2000	3.89172
202.3000	3.89660
202.4000	3.89660
202.5000	3.89172
202.6000	3.89172
202.7000	3.89660
202.8000	3.89172
202.9000	3.89660
203.0000	3.89660
203.1000	3.89660
203.2000	3.89660
203.3000	3.89660
203.4000	3.89660
203.5000	3.89660
203.6000	3.89660
203.7000	3.89660
203.8000	3.89172
203.9000	3.89660
204.0000	3.89172
204.1000	3.89660
204.2000	3.89172
204.3000	3.89660
204.4000	3.89172
204.5000	3.89172
204.6000	3.89172
204.7000	3.89660
204.8000	3.89172
204.9000	3.89660
205.0000	3.89172
205.1000	3.89172
205.2000	3.89172
205.3000	3.89660
205.4000	3.89172
205.5000	3.89660
205.6000	3.89172
205.7000	3.89660
205.8000	3.89172
205.9000	3.89172
206.0000	3.89172
206.1000	3.89660
206.2000	3.89172
206.3000	3.88684
206.4000	3.89172
206.5000	3.89172
206.6000	3.89172
206.7000	3.89172
206.8000	3.89172
206.9000	3.88684
207.0000	3.88684
207.1000	3.88684
207.2000	3.89172
207.3000	3.88684
207.4000	3.89172
207.5000	3.88684
207.6000	3.89172
207.7000	3.88684
207.8000	3.89172
207.9000	3.88684
208.0000	3.89172
208.1000	3.89660
208.2000	3.89172
208.3000	3.88684
208.4000	3.89172
208.5000	3.88684
208.6000	3.89172
208.7000	3.88684
208.8000	3.89172
208.9000	3.88684
209.0000	3.89172
209.1000	3.88684
209.2000	3.89172
209.3000	3.88684
209.4000	3.89172
209.5000	3.88684
209.6000	3.89172
209.7000	3.88684
209.8000	3.88684
209.9000	3.88684
210.0000	3.89172
210.1000	3.88684
210.2000	3.89172
210.3000	3.88684
210.4000	3.89172
210.5000	3.88684
210.6000	3.89172
210.7000	3.88684
210.8000	3.89172
210.9000	3.88684
211.0000	3.89172
211.1000	3.88684
211.2000	3.89172
211.3000	3.88684
211.4000	3.89172
211.5000	3.88684
211.6000	3.89172
211.7000	3.88684
211.8000	3.89172
211.9000	3.88684
212.0000	3.88684
212.1000	3.88684
212.2000	3.89172
212.3000	3.88684
212.4000	3.88195
212.5000	3.88684
212.6000	3.89172
212.7000	3.88684
212.8000	3.89172
212.9000	3.88684
213.0000	3.88684
213.1000	3.88684
213.2000	3.88684
213.3000	3.88684
213.4000	3.89172
213.5000	3.88684
213.6000	3.88684
213.7000	3.88684
213.8000	3.89172
213.9000	3.88684
214.0000	3.88684
214.1000	3.88684
214.2000	3.88684
214.3000	3.88684
214.4000	3.88684
214.5000	3.88684
214.6000	3.88684
214.7000	3.88684
214.8000	3.89172
214.9000	3.88684
215.0000	3.88684
215.1000	3.88195
215.2000	3.88684
215.3000	3.88684
215.4000	3.88684
215.5000	3.88684
215.6000	3.88684
215.7000	3.88684
215.8000	3.88684
215.9000	3.88684
216.0000	3.88684
216.1000	3.88195
216.2000	3.88684
216.3000	3.88684
216.4000	3.88195
216.5000	3.88684
216.6000	3.88684
216.7000	3.88684
216.8000	3.88684
216.9000	3.88195
217.0000	3.88684
217.1000	3.88684
217.2000	3.88684
217.3000	3.88195
217.4000	3.88684
217.5000	3.88684
217.6000	3.88684
217.7000	3.88684
217.8000	3.88684
217.9000	3.88684
218.0000	3.88684
218.1000	3.88684
218.2000	3.88684
218.3000	3.88684
218.4000	3.88684
218.5000	3.88684
218.6000	3.88684
218.7000	3.88684
218.8000	3.88684
218.9000	3.88684
219.0000	3.88684
219.1000	3.88195
219.2000	3.88684
219.3000	3.88684
219.4000	3.88684
219.5000	3.88195
219.6000	3.88684
219.7000	3.88684
219.8000	3.88684
219.9000	3.88684
220.0000	3.88684
220.1000	3.88684
220.2000	3.88684
220.3000	3.88684
220.4000	3.88684
220.5000	3.88195
220.6000	3.88684
220.7000	3.88684
220.8000	3.88684
220.9000	3.88195
221.0000	3.88684
221.1000	3.88684
221.2000	3.88195
221.3000	3.88195
221.4000	3.88684
221.5000	3.88684
221.6000	3.88684
221.7000	3.88195
221.8000	3.88684
221.9000	3.88684
222.0000	3.88684
222.1000	3.88684
222.2000	3.88684
222.3000	3.88684
222.4000	3.88684
222.5000	3.88684
222.6000	3.88684
222.7000	3.88684
222.8000	3.88684
222.9000	3.88195
223.0000	3.88195
223.1000	3.88684
223.2000	3.88684
223.3000	3.88684
223.4000	3.88684
223.5000	3.88195
223.6000	3.88684
223.7000	3.88684
223.8000	3.88684
223.9000	3.88684
224.0000	3.88684
224.1000	3.88195
224.2000	3.88684
224.3000	3.88195
224.4000	3.88684
224.5000	3.88684
224.6000	3.88684
224.7000	3.88684
224.8000	3.88684
224.9000	3.88684
225.0000	3.88684
225.1000	3.88684
225.2000	3.88684
225.3000	3.88684
225.4000	3.88684
225.5000	3.88195
225.6000	3.88684
225.7000	3.88684
225.8000	3.88684
225.9000	3.88195
226.0000	3.88684
226.1000	3.88684
226.2000	3.88195
226.3000	3.88684
226.4000	3.88684
226.5000	3.88195
226.6000	3.88684
226.7000	3.88195
226.8000	3.88195
226.9000	3.88684
227.0000	3.88684
227.1000	3.88195
227.2000	3.88684
227.3000	3.88195
227.4000	3.88684
227.5000	3.88195
227.6000	3.88684
227.7000	3.88684
227.8000	3.88684
227.9000	3.88195
228.0000	3.88684
228.1000	3.88195
228.2000	3.88684
228.3000	3.87707
228.4000	3.88195
228.5000	3.88684
228.6000	3.88684
228.7000	3.88684
228.8000	3.88684
228.9000	3.88684
229.0000	3.88684
229.1000	3.88684
229.2000	3.88684
229.3000	3.88684
229.4000	3.88684
229.5000	3.88684
229.6000	3.88195
229.7000	3.88195
229.8000	3.88684
229.9000	3.88195
230.0000	3.88684
230.1000	3.88195
230.2000	3.88684
230.3000	3.88195
230.4000	3.88684
230.5000	3.88684
230.6000	3.88684
230.7000	3.88195
230.8000	3.88684
230.9000	3.87707
231.0000	3.88195
231.1000	3.88195
231.2000	3.88684
231.3000	3.88195
231.4000	3.88684
231.5000	3.88195
231.6000	3.88684
231.7000	3.88684
231.8000	3.88684
231.9000	3.88684
232.0000	3.88684
232.1000	3.88195
232.2000	3.88684
232.3000	3.88195
232.4000	3.88684
232.5000	3.88195
232.6000	3.88684
232.7000	3.88195
232.8000	3.88684
232.9000	3.88195
233.0000	3.88684
233.1000	3.87707
233.2000	3.88684
233.3000	3.88195
233.4000	3.88684
233.5000	3.88195
233.6000	3.88195
233.7000	3.88684
233.8000	3.88195
233.9000	3.88195
234.0000	3.88684
234.1000	3.88195
234.2000	3.88684
234.3000	3.88195
234.4000	3.88195
234.5000	3.88684
234.6000	3.88684
234.7000	3.88195
234.8000	3.88684
234.9000	3.87707
235.0000	3.88195
235.1000	3.88684
235.2000	3.88684
235.3000	3.88684
235.4000	3.88684
235.5000	3.88195
235.6000	3.88684
235.7000	3.87707
235.8000	3.88195
235.9000	3.88195
236.0000	3.88195
236.1000	3.88684
236.2000	4.00891
236.3000	4.23841
236.4000	4.51674
236.5000	4.92203
236.6000	4.96597
236.7000	4.96109
236.8000	4.95132
236.9000	4.93667
237.0000	4.93179
237.1000	4.92691
237.2000	4.92203
237.3000	4.91226
237.4000	4.90738
237.5000	4.90249
237.6000	4.89273
237.7000	4.89273
237.8000	4.88784
237.9000	4.88296
238.0000	4.87320
238.1000	4.86831
238.2000	4.86831
238.3000	4.85855
238.4000	4.85855
238.5000	4.85366
238.6000	4.84878
238.7000	4.84390
238.8000	4.84878
238.9000	4.84390
239.0000	4.84390
239.1000	4.84390
239.2000	4.82925
239.3000	4.82437
239.4000	4.82437
239.5000	4.81460
239.6000	4.80972
239.7000	4.81460
239.8000	4.81460
239.9000	4.80483
240.0000	4.80483
240.1000	4.80483
240.2000	4.80483
240.3000	4.79507
240.4000	4.79507
240.5000	4.79507
240.6000	4.79019
240.7000	4.79019
240.8000	4.79019
240.9000	4.78530
241.0000	4.78530
241.1000	4.78530
241.2000	4.78530
241.3000	4.77554
241.4000	4.77554
241.5000	4.77554
241.6000	4.77065
241.7000	4.77554
241.8000	4.77065
241.9000	4.76577
242.0000	4.77065
242.1000	4.76577
242.2000	4.76577
242.3000	4.76577
242.4000	4.76577
242.5000	4.76577
242.6000	4.75600
242.7000	4.76577
242.8000	4.76089
242.9000	4.75600
243.0000	4.76089
243.1000	4.75112
243.2000	4.75112
243.3000	4.75600
243.4000	4.75112
243.5000	4.74624
243.6000	4.74624
243.7000	4.74624
243.8000	4.74624
243.9000	4.74624
244.0000	4.74624
244.1000	4.74624
244.2000	4.74624
244.3000	4.73647
244.4000	4.74624
244.5000	4.73647
244.6000	4.74136
244.7000	4.73647
244.8000	4.73647
244.9000	4.73647
245.0000	4.73647
245.1000	4.73647
245.2000	4.73159
245.3000	4.73647
245.4000	4.73159
245.5000	4.73647
245.6000	4.73159
245.7000	4.73647
245.8000	4.73159
245.9000	4.73159
246.0000	4.73159
246.1000	4.73159
246.2000	4.72671
246.3000	4.73159
246.4000	4.73159
246.5000	4.72671
246.6000	4.73159
246.7000	4.72671
246.8000	4.73159
246.9000	4.72671
247.0000	4.72671
247.1000	4.72671
247.2000	4.73159
247.3000	4.72671
247.4000	4.72671
247.5000	4.72671
247.6000	4.72671
247.7000	4.72671
247.8000	4.72671
247.9000	4.72671
248.0000	4.72182
248.1000	4.72671
248.2000	4.72671
248.3000	4.72182
248.4000	4.72671
248.5000	4.72671
248.6000	4.72671
248.7000	4.71694
248.8000	4.71694
248.9000	4.72671
249.0000	4.71694
249.1000	4.71694
249.2000	4.71694
249.3000	4.71694
249.4000	4.71694
249.5000	4.71694
249.6000	4.71206
249.7000	4.71694
249.8000	4.71206
249.9000	4.71694
250.0000	4.71694
250.1000	4.71694
250.2000	4.71206
250.3000	4.70717
250.4000	4.71206
250.5000	4.70717
250.6000	4.71206
250.7000	4.71206
250.8000	4.70717
250.9000	4.70717
251.0000	4.70717
251.1000	4.70717
251.2000	4.71206
251.3000	4.70717
251.4000	4.70717
251.5000	4.70717
251.6000	4.70717
251.7000	4.70717
251.8000	4.70717
251.9000	4.70717
252.0000	4.71206
252.1000	4.70717
252.2000	4.71206
252.3000	4.70717
252.4000	4.70717
252.5000	4.70717
252.6000	4.70717
252.7000	4.70717
252.8000	4.70717
252.9000	4.70229
253.0000	4.70717
253.1000	4.70229
253.2000	4.70717
253.3000	4.70717
253.4000	4.70717
253.5000	4.70717
253.6000	4.70717
253.7000	4.70717
253.8000	4.70717
253.9000	4.70717
254.0000	4.70717
254.1000	4.69741
254.2000	4.70717
254.3000	4.69741
254.4000	4.70717
254.5000	4.69741
254.6000	4.70229
254.7000	4.69741
254.8000	4.70229
254.9000	4.69741
255.0000	4.70717
255.1000	4.70229
255.2000	4.69741
255.3000	4.69741
255.4000	4.70229
255.5000	4.69741
255.6000	4.70229
255.7000	4.69741
255.8000	4.69741
255.9000	4.69741
256.0000	4.69741
256.1000	4.69741
256.2000	4.69741
256.3000	4.69741
256.4000	4.69253
256.5000	4.69741
256.6000	4.69741
256.7000	4.69741
256.8000	4.69741
256.9000	4.69741
257.0000	4.69741
257.1000	4.69741
257.2000	4.69253
257.3000	4.69741
257.4000	4.69741
257.5000	4.69741
257.6000	4.69741
257.7000	4.69741
257.8000	4.69253
257.9000	4.69741
258.0000	4.70229
258.1000	4.69253
258.2000	4.69741
258.3000	4.69741
258.4000	4.69741
258.5000	4.68764
258.6000	4.69253
258.7000	4.69741
258.8000	4.69741
258.9000	4.69741
259.0000	4.69741
259.1000	4.69741
259.2000	4.69253
259.3000	4.69253
259.4000	4.69741
259.5000	4.69741
259.6000	4.69253
259.7000	4.69741
259.8000	4.69253
259.9000	4.69253
260.0000	4.69253
260.1000	4.69741
260.2000	4.69253
260.3000	4.69253
260.4000	4.69253
260.5000	4.68764
260.6000	4.69253
260.7000	4.69253
260.8000	4.69253
260.9000	4.69253
261.0000	4.69253
261.1000	4.69253
261.2000	4.69253
261.3000	4.68764
261.4000	4.69253
261.5000	4.68764
261.6000	4.68764
261.7000	4.68764
261.8000	4.69253
261.9000	4.68764
262.0000	4.69253
262.1000	4.68764
262.2000	4.69253
262.3000	4.68764
262.4000	4.68764
262.5000	4.68764
262.6000	4.69253
262.7000	4.68764
262.8000	4.68764
262.9000	4.68764
263.0000	4.68764
263.1000	4.68764
263.2000	4.68764
263.3000	4.68764
263.4000	4.69253
263.5000	4.68764
263.6000	4.69253
263.7000	4.68764
263.8000	4.69253
263.9000	4.68764
264.0000	4.69253
264.1000	4.68764
264.2000	4.69253
264.3000	4.68764
264.4000	4.68764
264.5000	4.68764
264.6000	4.69253
264.7000	4.68764
264.8000	4.69253
264.9000	4.68764
265.0000	4.69253
265.1000	4.68764
265.2000	4.68764
265.3000	4.68764
265.4000	4.68764
265.5000	4.68764
265.6000	4.68764
265.7000	4.68764
265.8000	4.68764
265.9000	4.68764
266.0000	4.68764
266.1000	4.68764
266.2000	4.68764
266.3000	4.68764
266.4000	4.68764
266.5000	4.68764
266.6000	4.68764
266.7000	4.68764
266.8000	4.68764
266.9000	4.68764
267.0000	4.68764
267.1000	4.68764
267.2000	4.68764
267.3000	4.68764
267.4000	4.69253
267.5000	4.68764
267.6000	4.68764
267.7000	4.68764
267.8000	4.68764
267.9000	4.68764
268.0000	4.68764
268.1000	4.68764
268.2000	4.68764
268.3000	4.68764
268.4000	4.68764
268.5000	4.68764
268.6000	4.68764
268.7000	4.68764
268.8000	4.68764
268.9000	4.68764
269.0000	4.68764
269.1000	4.68764
269.2000	4.68764
269.3000	4.68764
269.4000	4.68764
269.5000	4.68764
269.6000	4.68764
269.7000	4.68764
269.8000	4.68764
269.9000	4.68764
270.0000	4.68764
270.1000	4.68764
270.2000	4.68764
270.3000	4.68764
270.4000	4.68764
270.5000	4.68764
270.6000	4.68764
270.7000	4.68764
270.8000	4.68764
270.9000	4.68764
271.0000	4.68764
271.1000	4.68764
271.2000	4.68764
271.3000	4.68764
271.4000	4.68764
271.5000	4.68764
271.6000	4.68764
271.7000	4.68764
271.8000	4.68764
271.9000	4.68764
272.0000	4.68764
272.1000	4.68764
272.2000	4.68764
272.3000	4.68764
272.4000	4.68764
272.5000	4.68764
272.6000	4.68764
272.7000	4.68764
272.8000	4.68764
272.9000	4.68764
273.0000	4.68764
273.1000	4.68764
273.2000	4.68764
273.3000	4.68764
273.4000	4.68764
273.5000	4.68764
273.6000	4.68764
273.7000	4.68764
273.8000	4.68764
273.9000	4.68764
274.0000	4.68764
274.1000	4.68764
274.2000	4.68764
274.3000	4.68764
274.4000	4.68764
274.5000	4.68764
274.6000	4.68764
274.7000	4.68764
274.8000	4.68764
274.9000	4.68764
275.0000	4.68764
275.1000	4.68764
275.2000	4.68764
275.3000	4.68764
275.4000	4.68764
275.5000	4.68764
275.6000	4.68764
275.7000	4.68764
275.8000	4.68764
275.9000	4.68764
276.0000	4.68764
276.1000	4.68764
276.2000	4.68764
276.3000	4.68764
276.4000	4.68764
276.5000	4.68764
276.6000	4.68764
276.7000	4.68764
276.8000	4.68764
276.9000	4.68764
277.0000	4.68764
277.1000	4.68764
277.2000	4.68764
277.3000	4.68764
277.4000	4.68764
277.5000	4.68764
277.6000	4.68764
277.7000	4.68764
277.8000	4.68764
277.9000	4.68764
278.0000	4.68764
278.1000	4.68764
278.2000	4.68764
278.3000	4.68764
278.4000	4.68764
278.5000	4.68764
278.6000	4.68764
278.7000	4.68764
278.8000	4.68764
278.9000	4.68764
279.0000	4.68764
279.1000	4.68764
279.2000	4.68764
279.3000	4.68764
279.4000	4.68764
279.5000	4.68764
279.6000	4.68764
279.7000	4.68764
279.8000	4.68764
279.9000	4.68764
280.0000	4.68764
280.1000	4.68764
280.2000	4.68764
280.3000	4.68764
280.4000	4.68764
280.5000	4.68764
280.6000	4.68764
280.7000	4.68764
280.8000	4.68764
280.9000	4.68764
281.0000	4.68764
281.1000	4.68764
281.2000	4.68764
281.3000	4.68764
281.4000	4.68764
281.5000	4.68764
281.6000	4.68764
281.7000	4.68764
281.8000	4.68764
281.9000	4.68764
282.0000	4.68764
282.1000	4.68764
282.2000	4.68764
282.3000	4.68764
282.4000	4.68276
282.5000	4.68764
282.6000	4.68764
282.7000	4.68764
282.8000	4.68764
282.9000	4.68764
283.0000	4.68764
283.1000	4.68764
283.2000	4.68764
283.3000	4.68764
283.4000	4.68764
283.5000	4.68764
283.6000	4.68764
283.7000	4.68764
283.8000	4.68764
283.9000	4.68764
284.0000	4.68764
284.1000	4.68764
284.2000	4.68764
284.3000	4.68764
284.4000	4.68764
284.5000	4.68276
284.6000	4.68764
284.7000	4.68764
284.8000	4.68764
284.9000	4.68764
285.0000	4.68764
285.1000	4.68764
285.2000	4.68764
285.3000	4.68764
285.4000	4.68764
285.5000	4.68764
285.6000	4.68764
285.7000	4.68764
285.8000	4.68764
285.9000	4.68764
286.0000	4.68764
286.1000	4.68764
286.2000	4.68764
286.3000	4.68764
286.4000	4.68764
286.5000	4.68764
286.6000	4.68764
286.7000	4.68764
286.8000	4.68764
286.9000	4.68764
287.0000	4.68764
287.1000	4.68764
287.2000	4.68764
287.3000	4.68764
287.4000	4.68764
287.5000	4.68764
287.6000	4.68764
287.7000	4.68764
287.8000	4.68764
287.9000	4.68764
288.0000	4.68764
288.1000	4.68764
288.2000	4.68764
288.3000	4.68764
288.4000	4.68764
288.5000	4.68764
288.6000	4.68764
288.7000	4.68764
288.8000	4.68764
288.9000	4.68764
289.0000	4.68764
289.1000	4.68764
289.2000	4.68764
289.3000	4.68764
289.4000	4.68764
289.5000	4.68764
289.6000	4.68764
289.7000	4.68764
289.8000	4.68764
289.9000	4.68764
290.0000	4.68764
290.1000	4.68764
290.2000	4.68276
290.3000	4.68764
290.4000	4.68764
290.5000	4.68764
290.6000	4.68764
290.7000	4.68764
290.8000	4.68764
290.9000	4.68764
291.0000	4.68764
291.1000	4.68764
291.2000	4.68764
291.3000	4.68764
291.4000	4.68764
291.5000	4.68764
291.6000	4.68764
291.7000	4.68764
291.8000	4.68764
291.9000	4.68764
292.0000	4.68764
292.1000	4.68764
292.2000	4.68764
292.3000	4.68764
292.4000	4.68764
292.5000	4.68764
292.6000	4.68764
292.7000	4.68764
292.8000	4.68276
292.9000	4.68764
293.0000	4.68764
293.1000	4.68764
293.2000	4.68764
293.3000	4.68764
293.4000	4.68764
293.5000	4.68764
293.6000	4.67788
293.7000	4.68764
293.8000	4.67788
293.9000	4.68764
294.0000	4.68764
294.1000	4.68764
294.2000	4.68764
294.3000	4.68764
294.4000	4.68764
294.5000	4.68276
294.6000	4.68764
294.7000	4.67788
294.8000	4.68764
294.9000	4.68764
295.0000	4.68764
295.1000	4.68764
295.2000	4.68276
295.3000	4.68764
295.4000	4.68764
